#  lambda[A]      flux[erg cm^-2 s^-1 A^-1]
 3603.5498     -8.657469e-02
 3605.3248     1.198252e-02
 3607.0997     2.047358e+00
 3608.8746     6.814867e-01
 3610.6495     -2.572081e+00
 3612.4244     -3.578775e+00
 3614.1993     -1.753878e+00
 3615.9743     5.333610e-01
 3617.7492     -1.216206e+00
 3619.5241     2.738446e+00
 3621.2990     -1.627963e+00
 3623.0739     -1.775452e+00
 3624.8488     3.006735e+00
 3626.6238     -1.573398e+00
 3628.3987     -9.396323e-02
 3630.1736     1.043411e+00
 3631.9485     -5.858939e-01
 3633.7234     -1.402387e+00
 3635.4984     -1.220835e+00
 3637.2733     -2.316412e-01
 3639.0482     1.385083e+00
 3640.8231     2.892174e+00
 3642.5980     -3.340215e-01
 3644.3729     1.245865e+00
 3646.1479     7.297569e-01
 3647.9228     -1.826769e+00
 3649.6977     -1.763499e+00
 3651.4726     -6.702881e-01
 3653.2475     2.542999e+00
 3655.0224     3.766182e+00
 3656.7974     3.413578e-01
 3658.5723     8.154466e-01
 3660.3472     -3.913145e-01
 3662.1221     -4.402230e-01
 3663.8970     -6.282915e-01
 3665.6720     -1.227474e+00
 3667.4469     -1.808213e+00
 3669.2218     -1.518248e+00
 3670.9967     -7.191636e-02
 3672.7716     8.195958e-02
 3674.5465     1.005488e+00
 3676.3215     1.652578e+00
 3678.0964     2.805898e+00
 3679.8713     1.589248e+00
 3681.6462     8.850189e-02
 3683.4211     1.045399e+00
 3685.1961     4.551197e-01
 3686.9710     9.726076e-01
 3688.7459     4.896763e-01
 3690.5208     -3.665416e-01
 3692.2957     4.132271e-01
 3694.0706     1.223023e+00
 3695.8456     4.463037e-01
 3697.6205     -8.664312e-01
 3699.3954     -1.873562e-01
 3701.1703     5.866686e-01
 3702.9452     8.618812e-01
 3704.7201     1.285721e+00
 3706.4951     2.189512e+00
 3708.2700     1.075055e+00
 3710.0449     8.804401e-01
 3711.8198     3.013034e-01
 3713.5947     -7.745414e-02
 3715.3697     -9.647821e-02
 3717.1446     4.423572e-01
 3718.9195     8.544517e-01
 3720.6944     1.006864e+00
 3722.4693     3.264923e+00
 3724.2442     9.891463e-01
 3726.0192     -9.303557e-01
 3727.7941     3.095103e-01
 3729.5690     1.450281e+00
 3731.3439     1.849833e+00
 3733.1188     8.509703e-01
 3734.8937     -8.942799e-02
 3736.6687     6.303754e-01
 3738.4436     5.884400e-01
 3740.2185     5.093064e-01
 3741.9934     -1.836646e-03
 3743.7683     1.005583e+00
 3745.5433     4.380778e-01
 3747.3182     -7.669390e-01
 3749.0931     -2.321968e-01
 3750.8680     3.683156e-01
 3752.6429     1.188661e+00
 3754.4178     -3.495229e-01
 3756.1928     -8.900737e-01
 3757.9677     -1.278689e-01
 3759.7426     2.324673e-01
 3761.5175     -1.142144e-01
 3763.2924     1.619122e-01
 3765.0673     6.194769e-01
 3766.8423     4.686953e-01
 3768.6172     1.120324e+00
 3770.3921     1.208781e+00
 3772.1670     6.928630e-01
 3773.9419     1.467081e+00
 3775.7169     8.912702e-01
 3777.4918     7.352666e-01
 3779.2667     3.191385e-02
 3781.0416     -3.184639e-01
 3782.8165     4.007404e-02
 3784.5914     -1.245928e-01
 3786.3664     -8.303411e-01
 3788.1413     -7.384421e-01
 3789.9162     -3.900638e-01
 3791.6911     -5.402628e-01
 3793.4660     1.541196e-01
 3795.2409     8.287467e-01
 3797.0159     8.139203e-01
 3798.7908     9.467169e-01
 3800.5657     -5.868935e-02
 3802.3406     2.008541e-01
 3804.1155     4.580863e-01
 3805.8905     -5.634599e-01
 3807.6654     7.847667e-02
 3809.4403     1.202706e-01
 3811.2152     6.493327e-01
 3812.9901     2.353994e-01
 3814.7650     -2.908387e-01
 3816.5400     -2.024865e-01
 3818.3149     -3.867157e-01
 3820.0898     -1.881468e-01
 3821.8647     7.387132e-01
 3823.6396     4.723309e-01
 3825.4146     3.963048e-01
 3827.1895     3.791580e-01
 3828.9644     3.874485e-01
 3830.7393     2.580463e-01
 3832.5142     2.195814e-02
 3834.2891     1.413532e-01
 3836.0641     1.003204e-01
 3837.8390     3.027857e-02
 3839.6139     3.107800e-01
 3841.3888     6.786509e-01
 3843.1637     2.601933e-01
 3844.9386     -2.984563e-01
 3846.7136     4.162899e-01
 3848.4885     2.192437e-02
 3850.2634     -2.211108e-02
 3852.0383     7.128125e-01
 3853.8132     4.603221e-01
 3855.5882     2.458659e-01
 3857.3631     3.737496e-01
 3859.1380     7.608108e-02
 3860.9129     2.364976e-01
 3862.6878     1.451183e-02
 3864.4627     -2.466789e-01
 3866.2377     -7.195578e-02
 3868.0126     3.819361e-01
 3869.7875     4.793111e-01
 3871.5624     1.138538e-01
 3873.3373     4.618767e-01
 3875.1122     6.842128e-01
 3876.8872     3.257891e-01
 3878.6621     2.845412e-01
 3880.4370     2.722152e-01
 3882.2119     2.119044e-01
 3883.9868     2.263158e-01
 3885.7618     3.841060e-01
 3887.5367     5.152087e-01
 3889.3116     5.052834e-01
 3891.0865     3.944575e-01
 3892.8614     3.734609e-01
 3894.6363     2.707438e-01
 3896.4113     2.288893e-01
 3898.1862     1.212041e-01
 3899.9611     1.523031e-01
 3901.7360     3.612714e-01
 3903.5109     2.742341e-01
 3905.2858     2.306144e-01
 3907.0608     2.507752e-01
 3908.8357     5.366663e-01
 3910.6106     6.373939e-01
 3912.3855     2.691143e-01
 3914.1604     8.455194e-02
 3915.9354     1.107067e-01
 3917.7103     1.849898e-01
 3919.4852     3.227820e-01
 3921.2601     4.283806e-01
 3923.0350     5.339599e-01
 3924.8099     4.233121e-01
 3926.5849     3.774017e-01
 3928.3598     3.446791e-01
 3930.1347     3.197100e-01
 3931.9096     5.443588e-01
 3933.6845     3.737539e-01
 3935.4594     1.632366e-01
 3937.2344     3.798212e-01
 3939.0093     2.961585e-01
 3940.7842     4.356799e-01
 3942.5591     3.748905e-01
 3944.3340     5.080498e-01
 3946.1090     4.422949e-01
 3947.8839     4.301643e-01
 3949.6588     3.598350e-01
 3951.4337     1.710092e-01
 3953.2086     5.844942e-02
 3954.9835     3.534054e-01
 3956.7585     2.398949e-01
 3958.5334     2.707876e-01
 3960.3083     2.488156e-01
 3962.0832     5.466770e-01
 3963.8581     6.155950e-01
 3965.6331     3.817882e-01
 3967.4080     3.092450e-01
 3969.1829     2.654594e-01
 3970.9578     2.849022e-01
 3972.7327     1.776270e-01
 3974.5076     1.987086e-02
 3976.2826     1.862992e-01
 3978.0575     1.628164e-01
 3979.8324     3.798198e-01
 3981.6073     2.698255e-01
 3983.3822     2.657577e-01
 3985.1571     4.102315e-01
 3986.9321     3.628423e-01
 3988.7070     2.854139e-01
 3990.4819     4.188060e-01
 3992.2568     4.007072e-01
 3994.0317     2.746695e-01
 3995.8067     2.353463e-01
 3997.5816     2.857976e-01
 3999.3565     3.853094e-01
 4001.1314     5.991122e-01
 4002.9063     4.776678e-01
 4004.6812     5.932240e-01
 4006.4562     6.003486e-01
 4008.2311     5.693546e-01
 4010.0060     6.133820e-01
 4011.7809     4.925402e-01
 4013.5558     4.436188e-01
 4015.3307     4.392968e-01
 4017.1057     3.138442e-01
 4018.8806     1.881091e-01
 4020.6555     4.709126e-01
 4022.4304     6.561980e-01
 4024.2053     5.401590e-01
 4025.9803     4.701920e-01
 4027.7552     4.070434e-01
 4029.5301     3.779432e-01
 4031.3050     2.291444e-01
 4033.0799     3.323513e-01
 4034.8548     3.565017e-01
 4036.6298     4.138128e-01
 4038.4047     5.022140e-01
 4040.1796     4.805820e-01
 4041.9545     5.114031e-01
 4043.7294     2.938492e-01
 4045.5043     4.540207e-01
 4047.2793     4.447379e-01
 4049.0542     2.455704e-01
 4050.8291     5.130512e-01
 4052.6040     5.351575e-01
 4054.3789     4.613939e-01
 4056.1539     4.606687e-01
 4057.9288     5.521020e-01
 4059.7037     5.707959e-01
 4061.4786     5.285885e-01
 4063.2535     4.116984e-01
 4065.0284     3.564386e-01
 4066.8034     4.874530e-01
 4068.5783     3.949849e-01
 4070.3532     3.581253e-01
 4072.1281     5.466482e-01
 4073.9030     5.843230e-01
 4075.6779     5.851824e-01
 4077.4529     3.810325e-01
 4079.2278     4.521969e-01
 4081.0027     7.084214e-01
 4082.7776     6.209853e-01
 4084.5525     4.143254e-01
 4086.3275     4.264536e-01
 4088.1024     4.294302e-01
 4089.8773     6.068848e-01
 4091.6522     5.525710e-01
 4093.4271     4.667674e-01
 4095.2020     5.197265e-01
 4096.9770     5.682725e-01
 4098.7519     3.522728e-01
 4100.5268     2.410176e-01
 4102.3017     3.929788e-01
 4104.0766     3.832920e-01
 4105.8516     4.751068e-01
 4107.6265     5.305058e-01
 4109.4014     3.138105e-01
 4111.1763     2.967849e-01
 4112.9512     3.737193e-01
 4114.7261     3.682916e-01
 4116.5011     4.927400e-01
 4118.2760     5.108601e-01
 4120.0509     3.854455e-01
 4121.8258     3.461466e-01
 4123.6007     4.201837e-01
 4125.3756     3.800272e-01
 4127.1506     1.056438e-01
 4128.9255     1.586278e-02
 4130.7004     5.165821e-01
 4132.4753     4.823762e-01
 4134.2502     4.525302e-01
 4136.0252     5.798852e-01
 4137.8001     5.561452e-01
 4139.5750     4.829473e-01
 4141.3499     5.701470e-01
 4143.1248     4.979128e-01
 4144.8997     4.820218e-01
 4146.6747     4.501112e-01
 4148.4496     6.132632e-01
 4150.2245     6.772522e-01
 4151.9994     5.975683e-01
 4153.7743     5.696337e-01
 4155.5492     6.106880e-01
 4157.3242     6.015794e-01
 4159.0991     5.334361e-01
 4160.8740     4.301428e-01
 4162.6489     5.419698e-01
 4164.4238     5.521472e-01
 4166.1988     6.367694e-01
 4167.9737     6.399394e-01
 4169.7486     4.754670e-01
 4171.5235     4.073730e-01
 4173.2984     4.342124e-01
 4175.0733     5.182946e-01
 4176.8483     4.925655e-01
 4178.6232     5.982172e-01
 4180.3981     5.895637e-01
 4182.1730     4.919685e-01
 4183.9479     5.484737e-01
 4185.7228     5.078827e-01
 4187.4978     4.310470e-01
 4189.2727     5.679117e-01
 4191.0476     5.942065e-01
 4192.8225     5.400977e-01
 4194.5974     5.482751e-01
 4196.3724     5.914914e-01
 4198.1473     4.918435e-01
 4199.9222     5.127386e-01
 4201.6971     5.363658e-01
 4203.4720     5.257789e-01
 4205.2469     4.855786e-01
 4207.0219     6.386663e-01
 4208.7968     6.568845e-01
 4210.5717     5.527309e-01
 4212.3466     5.866884e-01
 4214.1215     6.681752e-01
 4215.8964     5.601450e-01
 4217.6714     4.422540e-01
 4219.4463     5.213612e-01
 4221.2212     6.080646e-01
 4222.9961     5.355210e-01
 4224.7710     5.730150e-01
 4226.5460     5.297095e-01
 4228.3209     4.525469e-01
 4230.0958     5.206053e-01
 4231.8707     6.070368e-01
 4233.6456     5.472862e-01
 4235.4205     5.393733e-01
 4237.1955     6.020236e-01
 4238.9704     5.484595e-01
 4240.7453     5.915836e-01
 4242.5202     5.975254e-01
 4244.2951     6.707262e-01
 4246.0701     6.573040e-01
 4247.8450     5.037487e-01
 4249.6199     5.780455e-01
 4251.3948     5.279042e-01
 4253.1697     5.461556e-01
 4254.9446     4.479003e-01
 4256.7196     4.949731e-01
 4258.4945     5.532607e-01
 4260.2694     5.429233e-01
 4262.0443     5.698655e-01
 4263.8192     5.941504e-01
 4265.5941     5.104577e-01
 4267.3691     4.377719e-01
 4269.1440     6.334623e-01
 4270.9189     7.232463e-01
 4272.6938     6.697494e-01
 4274.4687     6.179252e-01
 4276.2437     6.050593e-01
 4278.0186     5.865091e-01
 4279.7935     6.184247e-01
 4281.5684     5.957299e-01
 4283.3433     5.523738e-01
 4285.1182     6.161552e-01
 4286.8932     6.188659e-01
 4288.6681     5.547407e-01
 4290.4430     6.739641e-01
 4292.2179     7.151644e-01
 4293.9928     6.617677e-01
 4295.7677     5.569179e-01
 4297.5427     6.237082e-01
 4299.3176     5.861309e-01
 4301.0925     5.601968e-01
 4302.8674     6.702225e-01
 4304.6423     6.171712e-01
 4306.4173     4.908001e-01
 4308.1922     4.510030e-01
 4309.9671     4.972183e-01
 4311.7420     5.534707e-01
 4313.5169     5.688061e-01
 4315.2918     6.448321e-01
 4317.0668     6.303768e-01
 4318.8417     6.292692e-01
 4320.6166     5.321569e-01
 4322.3915     5.021964e-01
 4324.1664     5.817099e-01
 4325.9413     5.026968e-01
 4327.7163     5.612020e-01
 4329.4912     5.682622e-01
 4331.2661     5.250316e-01
 4333.0410     5.637778e-01
 4334.8159     6.389127e-01
 4336.5909     5.645370e-01
 4338.3658     5.785890e-01
 4340.1407     8.013688e-01
 4341.9156     8.686224e-01
 4343.6905     8.507318e-01
 4345.4654     8.423635e-01
 4347.2404     7.800612e-01
 4349.0153     6.973261e-01
 4350.7902     6.089149e-01
 4352.5651     6.329594e-01
 4354.3400     7.119316e-01
 4356.1149     5.934604e-01
 4357.8899     4.770628e-01
 4359.6648     6.437169e-01
 4361.4397     7.835823e-01
 4363.2146     6.710328e-01
 4364.9895     6.542833e-01
 4366.7645     5.226324e-01
 4368.5394     7.138857e-01
 4370.3143     7.508371e-01
 4372.0892     5.715011e-01
 4373.8641     5.679880e-01
 4375.6390     6.858784e-01
 4377.4140     6.533647e-01
 4379.1889     6.532834e-01
 4380.9638     7.001953e-01
 4382.7387     7.051312e-01
 4384.5136     6.205910e-01
 4386.2886     5.808683e-01
 4388.0635     6.858923e-01
 4389.8384     6.256631e-01
 4391.6133     6.314958e-01
 4393.3882     6.683195e-01
 4395.1631     6.228387e-01
 4396.9381     6.052348e-01
 4398.7130     7.304736e-01
 4400.4879     6.587640e-01
 4402.2628     6.303620e-01
 4404.0377     6.811537e-01
 4405.8126     6.499790e-01
 4407.5876     6.098203e-01
 4409.3625     6.104114e-01
 4411.1374     6.951814e-01
 4412.9123     5.994684e-01
 4414.6872     5.770502e-01
 4416.4622     6.723667e-01
 4418.2371     6.903782e-01
 4420.0120     6.226299e-01
 4421.7869     7.104107e-01
 4423.5618     6.698654e-01
 4425.3367     6.216350e-01
 4427.1117     7.081860e-01
 4428.8866     6.919485e-01
 4430.6615     6.405885e-01
 4432.4364     7.194239e-01
 4434.2113     6.949553e-01
 4435.9862     7.103745e-01
 4437.7612     6.954805e-01
 4439.5361     6.042013e-01
 4441.3110     6.172759e-01
 4443.0859     7.057866e-01
 4444.8608     7.707282e-01
 4446.6358     6.786925e-01
 4448.4107     6.804420e-01
 4450.1856     7.049139e-01
 4451.9605     7.105789e-01
 4453.7354     7.173988e-01
 4455.5103     7.241685e-01
 4457.2853     7.241326e-01
 4459.0602     7.242218e-01
 4460.8351     7.399889e-01
 4462.6100     6.741246e-01
 4464.3849     7.463529e-01
 4466.1598     8.408419e-01
 4467.9348     7.421685e-01
 4469.7097     6.635491e-01
 4471.4846     7.454633e-01
 4473.2595     8.038470e-01
 4475.0344     7.906298e-01
 4476.8094     6.879622e-01
 4478.5843     6.897226e-01
 4480.3592     7.306290e-01
 4482.1341     6.690644e-01
 4483.9090     6.972402e-01
 4485.6839     7.303936e-01
 4487.4589     7.708657e-01
 4489.2338     7.319763e-01
 4491.0087     7.089543e-01
 4492.7836     7.528936e-01
 4494.5585     7.806754e-01
 4496.3334     8.612280e-01
 4498.1084     7.836564e-01
 4499.8833     7.192137e-01
 4501.6582     7.368470e-01
 4503.4331     7.146046e-01
 4505.2080     7.034894e-01
 4506.9830     7.140037e-01
 4508.7579     8.335978e-01
 4510.5328     7.998044e-01
 4512.3077     7.960045e-01
 4514.0826     8.904827e-01
 4515.8575     8.479772e-01
 4517.6325     8.212446e-01
 4519.4074     7.290264e-01
 4521.1823     7.937872e-01
 4522.9572     7.952120e-01
 4524.7321     7.544818e-01
 4526.5071     7.881568e-01
 4528.2820     8.187092e-01
 4530.0569     7.835972e-01
 4531.8318     6.686984e-01
 4533.6067     6.652281e-01
 4535.3816     7.906676e-01
 4537.1566     7.305968e-01
 4538.9315     7.863933e-01
 4540.7064     8.777192e-01
 4542.4813     7.511172e-01
 4544.2562     7.879941e-01
 4546.0311     7.726393e-01
 4547.8061     7.899454e-01
 4549.5810     7.566063e-01
 4551.3559     7.798382e-01
 4553.1308     7.344564e-01
 4554.9057     7.204758e-01
 4556.6807     6.957642e-01
 4558.4556     6.587055e-01
 4560.2305     6.935389e-01
 4562.0054     8.140082e-01
 4563.7803     8.080115e-01
 4565.5552     8.049844e-01
 4567.3302     7.887432e-01
 4569.1051     7.207468e-01
 4570.8800     7.547930e-01
 4572.6549     7.701022e-01
 4574.4298     7.690741e-01
 4576.2047     7.706991e-01
 4577.9797     7.699417e-01
 4579.7546     7.308770e-01
 4581.5295     7.412677e-01
 4583.3044     7.045944e-01
 4585.0793     6.974133e-01
 4586.8543     8.006659e-01
 4588.6292     7.976103e-01
 4590.4041     8.020774e-01
 4592.1790     7.991627e-01
 4593.9539     7.691469e-01
 4595.7288     7.905817e-01
 4597.5038     7.602444e-01
 4599.2787     7.268022e-01
 4601.0536     7.232445e-01
 4602.8285     7.270820e-01
 4604.6034     7.404360e-01
 4606.3783     6.535304e-01
 4608.1533     8.061247e-01
 4609.9282     8.777337e-01
 4611.7031     8.176102e-01
 4613.4780     8.130639e-01
 4615.2529     8.205451e-01
 4617.0279     8.147424e-01
 4618.8028     7.548626e-01
 4620.5777     6.869450e-01
 4622.3526     7.244857e-01
 4624.1275     8.377476e-01
 4625.9024     7.499945e-01
 4627.6774     7.898418e-01
 4629.4523     8.633562e-01
 4631.2272     9.002141e-01
 4633.0021     8.845768e-01
 4634.7770     7.586872e-01
 4636.5519     6.730587e-01
 4638.3269     7.549108e-01
 4640.1018     7.988213e-01
 4641.8767     7.927020e-01
 4643.6516     8.253080e-01
 4645.4265     7.374189e-01
 4647.2015     8.444672e-01
 4648.9764     8.436907e-01
 4650.7513     7.176791e-01
 4652.5262     6.951122e-01
 4654.3011     7.647710e-01
 4656.0760     8.282473e-01
 4657.8510     8.561656e-01
 4659.6259     8.487846e-01
 4661.4008     8.535196e-01
 4663.1757     8.517840e-01
 4664.9506     9.166243e-01
 4666.7256     8.293228e-01
 4668.5005     7.699382e-01
 4670.2754     8.081845e-01
 4672.0503     7.903212e-01
 4673.8252     8.014421e-01
 4675.6001     7.836856e-01
 4677.3751     8.735370e-01
 4679.1500     8.222939e-01
 4680.9249     7.568049e-01
 4682.6998     7.874337e-01
 4684.4747     7.822434e-01
 4686.2496     8.332003e-01
 4688.0246     8.606352e-01
 4689.7995     8.324012e-01
 4691.5744     8.162783e-01
 4693.3493     7.669588e-01
 4695.1242     8.149909e-01
 4696.8992     7.972059e-01
 4698.6741     7.782480e-01
 4700.4490     8.094836e-01
 4702.2239     7.779263e-01
 4703.9988     8.129951e-01
 4705.7737     7.212552e-01
 4707.5487     7.409988e-01
 4709.3236     7.771834e-01
 4711.0985     7.220914e-01
 4712.8734     7.418747e-01
 4714.6483     7.879768e-01
 4716.4232     7.856051e-01
 4718.1982     7.724078e-01
 4719.9731     8.194198e-01
 4721.7480     7.629724e-01
 4723.5229     7.895413e-01
 4725.2978     8.202317e-01
 4727.0728     8.476020e-01
 4728.8477     8.193404e-01
 4730.6226     7.643803e-01
 4732.3975     8.120540e-01
 4734.1724     7.835025e-01
 4735.9473     8.084246e-01
 4737.7223     7.997964e-01
 4739.4972     7.994793e-01
 4741.2721     7.913474e-01
 4743.0470     8.741001e-01
 4744.8219     8.221136e-01
 4746.5968     7.958535e-01
 4748.3718     7.945149e-01
 4750.1467     8.053853e-01
 4751.9216     8.676800e-01
 4753.6965     8.934906e-01
 4755.4714     8.019240e-01
 4757.2464     7.655070e-01
 4759.0213     8.260160e-01
 4760.7962     7.729409e-01
 4762.5711     7.451096e-01
 4764.3460     7.109994e-01
 4766.1209     7.664639e-01
 4767.8959     7.982918e-01
 4769.6708     7.322333e-01
 4771.4457     8.027130e-01
 4773.2206     8.198527e-01
 4774.9955     7.905980e-01
 4776.7704     7.920058e-01
 4778.5454     7.266285e-01
 4780.3203     7.932110e-01
 4782.0952     7.044005e-01
 4783.8701     7.972280e-01
 4785.6450     8.311805e-01
 4787.4200     7.996485e-01
 4789.1949     8.091615e-01
 4790.9698     8.355867e-01
 4792.7447     7.962430e-01
 4794.5196     8.001798e-01
 4796.2945     8.855768e-01
 4798.0695     8.614897e-01
 4799.8444     8.721465e-01
 4801.6193     8.987141e-01
 4803.3942     8.451169e-01
 4805.1691     7.720559e-01
 4806.9441     8.145212e-01
 4808.7190     8.402187e-01
 4810.4939     8.015348e-01
 4812.2688     8.474984e-01
 4814.0437     8.353567e-01
 4815.8186     8.570699e-01
 4817.5936     8.493567e-01
 4819.3685     8.871415e-01
 4821.1434     8.507698e-01
 4822.9183     8.223796e-01
 4824.6932     8.693973e-01
 4826.4681     7.933839e-01
 4828.2431     8.365280e-01
 4830.0180     8.208854e-01
 4831.7929     7.876525e-01
 4833.5678     8.624895e-01
 4835.3427     8.070621e-01
 4837.1177     7.782548e-01
 4838.8926     7.600896e-01
 4840.6675     8.008448e-01
 4842.4424     8.295702e-01
 4844.2173     7.453526e-01
 4845.9922     7.889117e-01
 4847.7672     8.013819e-01
 4849.5421     7.186161e-01
 4851.3170     7.771888e-01
 4853.0919     8.283444e-01
 4854.8668     7.753145e-01
 4856.6417     7.332942e-01
 4858.4167     8.236727e-01
 4860.1916     1.131728e+00
 4861.9665     1.456014e+00
 4863.7414     1.753411e+00
 4865.5163     1.708591e+00
 4867.2913     1.379620e+00
 4869.0662     1.056146e+00
 4870.8411     8.079091e-01
 4872.6160     7.104093e-01
 4874.3909     6.879714e-01
 4876.1658     6.537633e-01
 4877.9408     6.130526e-01
 4879.7157     6.371924e-01
 4881.4906     6.912313e-01
 4883.2655     7.490129e-01
 4885.0404     7.235270e-01
 4886.8153     7.217448e-01
 4888.5903     7.267091e-01
 4890.3652     7.127606e-01
 4892.1401     7.500880e-01
 4893.9150     7.636693e-01
 4895.6899     7.999269e-01
 4897.4649     8.187426e-01
 4899.2398     8.325561e-01
 4901.0147     8.297916e-01
 4902.7896     8.109490e-01
 4904.5645     8.088970e-01
 4906.3394     7.856215e-01
 4908.1144     8.213120e-01
 4909.8893     8.025774e-01
 4911.6642     8.570536e-01
 4913.4391     7.944350e-01
 4915.2140     7.692533e-01
 4916.9889     7.044897e-01
 4918.7639     7.426133e-01
 4920.5388     9.044642e-01
 4922.3137     8.700323e-01
 4924.0886     7.701580e-01
 4925.8635     7.774051e-01
 4927.6385     8.007448e-01
 4929.4134     8.124804e-01
 4931.1883     8.523569e-01
 4932.9632     8.351626e-01
 4934.7381     8.084413e-01
 4936.5130     7.984127e-01
 4938.2880     8.032069e-01
 4940.0629     7.811947e-01
 4941.8378     7.924492e-01
 4943.6127     7.704139e-01
 4945.3876     8.118983e-01
 4947.1626     8.160523e-01
 4948.9375     8.158317e-01
 4950.7124     9.180952e-01
 4952.4873     8.752480e-01
 4954.2622     8.891278e-01
 4956.0371     8.606676e-01
 4957.8121     8.490906e-01
 4959.5870     1.018280e+00
 4961.3619     1.005881e+00
 4963.1368     9.808466e-01
 4964.9117     9.227187e-01
 4966.6866     8.441421e-01
 4968.4616     8.312574e-01
 4970.2365     8.982236e-01
 4972.0114     8.917949e-01
 4973.7863     8.080249e-01
 4975.5612     8.339878e-01
 4977.3362     8.279394e-01
 4979.1111     8.214542e-01
 4980.8860     9.132091e-01
 4982.6609     8.374928e-01
 4984.4358     8.059708e-01
 4986.2107     7.800439e-01
 4987.9857     7.829345e-01
 4989.7606     8.828443e-01
 4991.5355     8.411146e-01
 4993.3104     8.719062e-01
 4995.0853     8.649625e-01
 4996.8602     9.087709e-01
 4998.6352     8.845038e-01
 5000.4101     8.371114e-01
 5002.1850     8.977703e-01
 5003.9599     9.093120e-01
 5005.7348     1.042574e+00
 5007.5098     1.132038e+00
 5009.2847     1.245383e+00
 5011.0596     1.249106e+00
 5012.8345     1.174507e+00
 5014.6094     9.906328e-01
 5016.3843     9.033588e-01
 5018.1593     8.340239e-01
 5019.9342     8.415713e-01
 5021.7091     8.116808e-01
 5023.4840     8.300908e-01
 5025.2589     8.458134e-01
 5027.0338     8.797020e-01
 5028.8088     8.508607e-01
 5030.5837     8.504497e-01
 5032.3586     8.711518e-01
 5034.1335     8.056660e-01
 5035.9084     8.471244e-01
 5037.6834     7.882382e-01
 5039.4583     8.066041e-01
 5041.2332     8.003086e-01
 5043.0081     8.256061e-01
 5044.7830     9.052249e-01
 5046.5579     8.657451e-01
 5048.3329     7.996174e-01
 5050.1078     8.393415e-01
 5051.8827     7.923309e-01
 5053.6576     8.832740e-01
 5055.4325     9.484668e-01
 5057.2074     8.236746e-01
 5058.9824     6.562591e-01
 5060.7573     8.949667e-01
 5062.5322     9.166642e-01
 5064.3071     8.589396e-01
 5066.0820     8.916633e-01
 5067.8570     8.466237e-01
 5069.6319     7.912940e-01
 5071.4068     8.332666e-01
 5073.1817     8.204634e-01
 5074.9566     9.215512e-01
 5076.7315     8.192815e-01
 5078.5065     8.046014e-01
 5080.2814     7.793674e-01
 5082.0563     7.990000e-01
 5083.8312     8.906211e-01
 5085.6061     7.831565e-01
 5087.3811     8.093149e-01
 5089.1560     8.732288e-01
 5090.9309     8.080760e-01
 5092.7058     8.935265e-01
 5094.4807     8.929114e-01
 5096.2556     8.296508e-01
 5098.0306     8.460868e-01
 5099.8055     8.458045e-01
 5101.5804     8.625360e-01
 5103.3553     7.582883e-01
 5105.1302     8.404635e-01
 5106.9051     8.840274e-01
 5108.6801     8.576590e-01
 5110.4550     8.981437e-01
 5112.2299     8.443719e-01
 5114.0048     8.650014e-01
 5115.7797     8.265846e-01
 5117.5547     8.570053e-01
 5119.3296     9.016244e-01
 5121.1045     8.865092e-01
 5122.8794     8.996074e-01
 5124.6543     9.180906e-01
 5126.4292     8.945308e-01
 5128.2042     8.611284e-01
 5129.9791     8.275102e-01
 5131.7540     8.402820e-01
 5133.5289     8.575899e-01
 5135.3038     8.474697e-01
 5137.0787     8.944141e-01
 5138.8537     9.000083e-01
 5140.6286     8.665342e-01
 5142.4035     9.440438e-01
 5144.1784     8.898081e-01
 5145.9533     8.772526e-01
 5147.7283     8.711315e-01
 5149.5032     7.990189e-01
 5151.2781     8.238845e-01
 5153.0530     8.786758e-01
 5154.8279     8.453359e-01
 5156.6028     8.080863e-01
 5158.3778     8.881028e-01
 5160.1527     9.066049e-01
 5161.9276     8.677688e-01
 5163.7025     8.681219e-01
 5165.4774     8.752959e-01
 5167.2523     8.045319e-01
 5169.0273     8.124259e-01
 5170.8022     8.226176e-01
 5172.5771     8.222713e-01
 5174.3520     8.100559e-01
 5176.1269     8.433691e-01
 5177.9019     8.184726e-01
 5179.6768     8.407205e-01
 5181.4517     8.340325e-01
 5183.2266     8.827755e-01
 5185.0015     9.642527e-01
 5186.7764     8.606889e-01
 5188.5514     8.581348e-01
 5190.3263     8.985538e-01
 5192.1012     8.178211e-01
 5193.8761     7.818988e-01
 5195.6510     8.499736e-01
 5197.4259     9.251357e-01
 5199.2009     9.404275e-01
 5200.9758     9.081799e-01
 5202.7507     9.088353e-01
 5204.5256     9.243272e-01
 5206.3005     9.465385e-01
 5208.0755     9.538637e-01
 5209.8504     9.606699e-01
 5211.6253     8.829482e-01
 5213.4002     8.706604e-01
 5215.1751     9.176226e-01
 5216.9500     9.324921e-01
 5218.7250     8.796235e-01
 5220.4999     8.665586e-01
 5222.2748     8.581732e-01
 5224.0497     9.153236e-01
 5225.8246     8.950344e-01
 5227.5996     8.626667e-01
 5229.3745     8.502142e-01
 5231.1494     9.340120e-01
 5232.9243     8.951903e-01
 5234.6992     9.008129e-01
 5236.4741     9.509909e-01
 5238.2491     9.142034e-01
 5240.0240     8.723884e-01
 5241.7989     8.304645e-01
 5243.5738     8.749568e-01
 5245.3487     9.872350e-01
 5247.1236     9.304152e-01
 5248.8986     9.030919e-01
 5250.6735     9.449591e-01
 5252.4484     9.516682e-01
 5254.2233     9.194205e-01
 5255.9982     8.864784e-01
 5257.7732     8.956982e-01
 5259.5481     9.288045e-01
 5261.3230     9.171808e-01
 5263.0979     9.246567e-01
 5264.8728     9.332334e-01
 5266.6477     8.573540e-01
 5268.4227     8.652095e-01
 5270.1976     8.630213e-01
 5271.9725     8.660837e-01
 5273.7474     8.569012e-01
 5275.5223     8.478398e-01
 5277.2972     8.799083e-01
 5279.0722     9.220291e-01
 5280.8471     9.414296e-01
 5282.6220     9.480117e-01
 5284.3969     8.997308e-01
 5286.1718     9.325032e-01
 5287.9468     9.707196e-01
 5289.7217     8.834515e-01
 5291.4966     9.053637e-01
 5293.2715     9.498425e-01
 5295.0464     9.463511e-01
 5296.8213     9.412811e-01
 5298.5963     9.487101e-01
 5300.3712     9.160960e-01
 5302.1461     9.376972e-01
 5303.9210     9.557955e-01
 5305.6959     9.436689e-01
 5307.4708     9.374973e-01
 5309.2458     9.999127e-01
 5311.0207     9.994286e-01
 5312.7956     9.520878e-01
 5314.5705     9.658708e-01
 5316.3454     1.000160e+00
 5318.1204     1.033022e+00
 5319.8953     9.818014e-01
 5321.6702     9.423081e-01
 5323.4451     9.287840e-01
 5325.2200     9.092633e-01
 5326.9949     8.968714e-01
 5328.7699     9.322369e-01
 5330.5448     9.310051e-01
 5332.3197     9.003478e-01
 5334.0946     9.007161e-01
 5335.8695     9.067141e-01
 5337.6444     8.909919e-01
 5339.4194     9.491308e-01
 5341.1943     9.887341e-01
 5342.9692     9.842699e-01
 5344.7441     9.115032e-01
 5346.5190     9.520298e-01
 5348.2940     9.143381e-01
 5350.0689     9.420936e-01
 5351.8438     9.820724e-01
 5353.6187     9.194951e-01
 5355.3936     9.477710e-01
 5357.1685     9.547610e-01
 5358.9435     1.031551e+00
 5360.7184     9.891968e-01
 5362.4933     9.528010e-01
 5364.2682     1.018664e+00
 5366.0431     1.067907e+00
 5367.8181     9.115008e-01
 5369.5930     8.832313e-01
 5371.3679     9.661145e-01
 5373.1428     9.713831e-01
 5374.9177     9.832656e-01
 5376.6926     8.625244e-01
 5378.4676     9.188700e-01
 5380.2425     9.853199e-01
 5382.0174     9.377275e-01
 5383.7923     9.375910e-01
 5385.5672     9.857978e-01
 5387.3421     1.001784e+00
 5389.1171     9.531955e-01
 5390.8920     9.990967e-01
 5392.6669     9.180496e-01
 5394.4418     9.905121e-01
 5396.2167     9.964209e-01
 5397.9917     9.304339e-01
 5399.7666     9.292505e-01
 5401.5415     9.364986e-01
 5403.3164     9.419681e-01
 5405.0913     8.980185e-01
 5406.8662     9.267017e-01
 5408.6412     9.182873e-01
 5410.4161     9.147767e-01
 5412.1910     9.105909e-01
 5413.9659     9.331741e-01
 5415.7408     9.836273e-01
 5417.5157     9.486988e-01
 5419.2907     9.433045e-01
 5421.0656     9.189034e-01
 5422.8405     9.861457e-01
 5424.6154     9.462711e-01
 5426.3903     9.635766e-01
 5428.1653     9.890583e-01
 5429.9402     1.013191e+00
 5431.7151     9.923526e-01
 5433.4900     8.935906e-01
 5435.2649     9.475971e-01
 5437.0398     9.829929e-01
 5438.8148     9.264993e-01
 5440.5897     9.347901e-01
 5442.3646     1.001282e+00
 5444.1395     1.051878e+00
 5445.9144     1.010866e+00
 5447.6893     9.382069e-01
 5449.4643     1.009994e+00
 5451.2392     1.037960e+00
 5453.0141     9.989930e-01
 5454.7890     9.501377e-01
 5456.5639     9.288667e-01
 5458.3389     9.103471e-01
 5460.1138     1.035072e+00
 5461.8887     1.025208e+00
 5463.6636     1.002697e+00
 5465.4385     9.974297e-01
 5467.2134     1.049788e+00
 5468.9884     1.038987e+00
 5470.7633     9.140484e-01
 5472.5382     8.935532e-01
 5474.3131     9.630692e-01
 5476.0880     1.023960e+00
 5477.8629     1.034340e+00
 5479.6379     9.592077e-01
 5481.4128     9.282135e-01
 5483.1877     9.798179e-01
 5484.9626     9.447153e-01
 5486.7375     9.822561e-01
 5488.5125     9.633528e-01
 5490.2874     9.658862e-01
 5492.0623     9.951144e-01
 5493.8372     1.044602e+00
 5495.6121     9.880937e-01
 5497.3870     9.602210e-01
 5499.1620     9.573234e-01
 5500.9369     9.650900e-01
 5502.7118     1.034749e+00
 5504.4867     1.002846e+00
 5506.2616     1.030143e+00
 5508.0366     1.024094e+00
 5509.8115     1.005946e+00
 5511.5864     9.887176e-01
 5513.3613     1.043666e+00
 5515.1362     1.040393e+00
 5516.9111     1.009858e+00
 5518.6861     9.596050e-01
 5520.4610     9.916966e-01
 5522.2359     9.668583e-01
 5524.0108     9.983505e-01
 5525.7857     1.068084e+00
 5527.5606     1.052186e+00
 5529.3356     9.879695e-01
 5531.1105     9.647202e-01
 5532.8854     1.024764e+00
 5534.6603     1.076260e+00
 5536.4352     1.011616e+00
 5538.2102     9.995213e-01
 5539.9851     9.815693e-01
 5541.7600     9.782759e-01
 5543.5349     9.874167e-01
 5545.3098     9.721696e-01
 5547.0847     1.022354e+00
 5548.8597     1.048622e+00
 5550.6346     1.011904e+00
 5552.4095     1.014801e+00
 5554.1844     1.062389e+00
 5555.9593     1.027183e+00
 5557.7342     1.065914e+00
 5559.5092     1.073055e+00
 5561.2841     9.970703e-01
 5563.0590     1.042247e+00
 5564.8339     1.012253e+00
 5566.6088     1.029909e+00
 5568.3838     1.067318e+00
 5570.1587     1.017903e+00
 5571.9336     1.040023e+00
 5573.7085     1.043261e+00
 5575.4834     1.043437e+00
 5577.2583     1.044181e+00
 5579.0333     1.044619e+00
 5580.8082     1.044973e+00
 5582.5831     1.070964e+00
 5584.3580     1.102878e+00
 5586.1329     1.035011e+00
 5587.9078     1.042974e+00
 5589.6828     1.029313e+00
 5591.4577     1.060093e+00
 5593.2326     1.103668e+00
 5595.0075     1.090685e+00
 5596.7824     1.046116e+00
 5598.5574     1.034293e+00
 5600.3323     1.058087e+00
 5602.1072     1.047371e+00
 5603.8821     1.039134e+00
 5605.6570     1.053253e+00
 5607.4319     1.054580e+00
 5609.2069     1.059571e+00
 5610.9818     1.043236e+00
 5612.7567     1.009003e+00
 5614.5316     1.048591e+00
 5616.3065     1.092706e+00
 5618.0814     1.070629e+00
 5619.8564     1.079697e+00
 5621.6313     1.030905e+00
 5623.4062     9.945398e-01
 5625.1811     1.066699e+00
 5626.9560     9.949597e-01
 5628.7310     9.755285e-01
 5630.5059     1.076528e+00
 5632.2808     1.060934e+00
 5634.0557     1.040836e+00
 5635.8306     1.018991e+00
 5637.6055     1.035431e+00
 5639.3805     1.020465e+00
 5641.1554     1.032261e+00
 5642.9303     1.052921e+00
 5644.7052     1.074620e+00
 5646.4801     1.040700e+00
 5648.2551     1.065746e+00
 5650.0300     1.031911e+00
 5651.8049     9.823903e-01
 5653.5798     1.028563e+00
 5655.3547     1.041157e+00
 5657.1296     1.041560e+00
 5658.9046     9.955353e-01
 5660.6795     9.897469e-01
 5662.4544     1.056935e+00
 5664.2293     9.302323e-01
 5666.0042     1.006802e+00
 5667.7791     1.090127e+00
 5669.5541     1.030725e+00
 5671.3290     1.056155e+00
 5673.1039     1.047666e+00
 5674.8788     9.989016e-01
 5676.6537     1.006627e+00
 5678.4287     1.097903e+00
 5680.2036     1.150099e+00
 5681.9785     1.127809e+00
 5683.7534     1.049005e+00
 5685.5283     1.067553e+00
 5687.3032     1.081175e+00
 5689.0782     1.082239e+00
 5690.8531     1.018142e+00
 5692.6280     1.033763e+00
 5694.4029     1.109361e+00
 5696.1778     1.017530e+00
 5697.9527     1.049853e+00
 5699.7277     1.077567e+00
 5701.5026     1.038811e+00
 5703.2775     1.056530e+00
 5705.0524     1.029744e+00
 5706.8273     1.081446e+00
 5708.6023     1.031632e+00
 5710.3772     1.067971e+00
 5712.1521     1.050875e+00
 5713.9270     9.807073e-01
 5715.7019     9.840830e-01
 5717.4768     9.916229e-01
 5719.2518     1.045409e+00
 5721.0267     1.143586e+00
 5722.8016     1.091159e+00
 5724.5765     1.098571e+00
 5726.3514     1.120506e+00
 5728.1263     1.058643e+00
 5729.9013     1.074193e+00
 5731.6762     1.069180e+00
 5733.4511     1.093284e+00
 5735.2260     1.165530e+00
 5737.0009     1.131159e+00
 5738.7759     1.096828e+00
 5740.5508     1.090685e+00
 5742.3257     1.127002e+00
 5744.1006     1.081737e+00
 5745.8755     1.039906e+00
 5747.6504     1.039744e+00
 5749.4254     1.047752e+00
 5751.2003     1.124891e+00
 5752.9752     1.104371e+00
 5754.7501     1.034615e+00
 5756.5250     1.095570e+00
 5758.2999     1.066198e+00
 5760.0749     1.105331e+00
 5761.8498     1.084817e+00
 5763.6247     1.034104e+00
 5765.3996     1.096559e+00
 5767.1745     1.162686e+00
 5768.9495     1.186141e+00
 5770.7244     1.100935e+00
 5772.4993     1.023767e+00
 5774.2742     1.139368e+00
 5776.0491     1.130952e+00
 5777.8240     1.017910e+00
 5779.5990     1.017810e+00
 5781.3739     1.089435e+00
 5783.1488     1.098658e+00
 5784.9237     1.110924e+00
 5786.6986     1.078465e+00
 5788.4736     1.057495e+00
 5790.2485     1.038160e+00
 5792.0234     1.091623e+00
 5793.7983     1.008001e+00
 5795.5732     1.136729e+00
 5797.3481     1.100602e+00
 5799.1231     1.075365e+00
 5800.8980     1.048669e+00
 5802.6729     1.080032e+00
 5804.4478     1.066533e+00
 5806.2227     1.144935e+00
 5807.9976     1.115388e+00
 5809.7726     1.096872e+00
 5811.5475     1.106914e+00
 5813.3224     1.054786e+00
 5815.0973     1.140883e+00
 5816.8722     1.163430e+00
 5818.6472     1.114875e+00
 5820.4221     1.068581e+00
 5822.1970     1.102965e+00
 5823.9719     1.140767e+00
 5825.7468     1.170720e+00
 5827.5217     1.093265e+00
 5829.2967     1.086463e+00
 5831.0716     1.203080e+00
 5832.8465     1.144295e+00
 5834.6214     1.063946e+00
 5836.3963     1.097905e+00
 5838.1712     1.113590e+00
 5839.9462     1.141143e+00
 5841.7211     1.150981e+00
 5843.4960     1.172938e+00
 5845.2709     1.021199e+00
 5847.0458     1.006602e+00
 5848.8208     1.110517e+00
 5850.5957     1.037827e+00
 5852.3706     9.846584e-01
 5854.1455     1.074893e+00
 5855.9204     1.127760e+00
 5857.6953     1.109996e+00
 5859.4703     1.020417e+00
 5861.2452     1.035590e+00
 5863.0201     1.069055e+00
 5864.7950     1.050771e+00
 5866.5699     1.152191e+00
 5868.3448     1.064644e+00
 5870.1198     1.087961e+00
 5871.8947     1.018857e+00
 5873.6696     1.074277e+00
 5875.4445     1.172145e+00
 5877.2194     1.301932e+00
 5878.9944     1.322465e+00
 5880.7693     1.311650e+00
 5882.5442     1.196250e+00
 5884.3191     1.208331e+00
 5886.0940     1.165170e+00
 5887.8689     1.048838e+00
 5889.6439     8.177030e-01
 5891.4188     6.879331e-01
 5893.1937     6.504070e-01
 5894.9686     5.250251e-01
 5896.7435     6.140495e-01
 5898.5184     6.332288e-01
 5900.2934     7.084565e-01
 5902.0683     9.323560e-01
 5903.8432     1.020675e+00
 5905.6181     9.743088e-01
 5907.3930     1.031525e+00
 5909.1680     1.116625e+00
 5910.9429     1.185514e+00
 5912.7178     1.073531e+00
 5914.4927     9.843875e-01
 5916.2676     1.141532e+00
 5918.0425     1.151779e+00
 5919.8175     1.131485e+00
 5921.5924     1.024289e+00
 5923.3673     1.005601e+00
 5925.1422     1.013055e+00
 5926.9171     1.032664e+00
 5928.6921     1.151444e+00
 5930.4670     1.084804e+00
 5932.2419     1.119985e+00
 5934.0168     1.181375e+00
 5935.7917     1.110612e+00
 5937.5666     9.619101e-01
 5939.3416     1.144342e+00
 5941.1165     1.180165e+00
 5942.8914     1.123758e+00
 5944.6663     1.124419e+00
 5946.4412     9.660598e-01
 5948.2161     1.060598e+00
 5949.9911     1.177993e+00
 5951.7660     1.236287e+00
 5953.5409     1.137526e+00
 5955.3158     1.027708e+00
 5957.0907     1.128014e+00
 5958.8657     1.212006e+00
 5960.6406     1.116829e+00
 5962.4155     1.100482e+00
 5964.1904     1.165025e+00
 5965.9653     1.071626e+00
 5967.7402     1.017864e+00
 5969.5152     1.173422e+00
 5971.2901     1.183456e+00
 5973.0650     1.077259e+00
 5974.8399     1.075443e+00
 5976.6148     1.129985e+00
 5978.3897     1.121482e+00
 5980.1647     1.026522e+00
 5981.9396     1.093974e+00
 5983.7145     1.109111e+00
 5985.4894     1.109396e+00
 5987.2643     1.103701e+00
 5989.0393     1.118923e+00
 5990.8142     1.152915e+00
 5992.5891     1.169314e+00
 5994.3640     1.126455e+00
 5996.1389     1.157315e+00
 5997.9138     1.068352e+00
 5999.6888     1.105857e+00
 6001.4637     1.148491e+00
 6003.2386     1.017953e+00
 6005.0135     1.061963e+00
 6006.7884     1.099876e+00
 6008.5633     1.086650e+00
 6010.3383     1.061959e+00
 6012.1132     1.084345e+00
 6013.8881     1.123826e+00
 6015.6630     1.110127e+00
 6017.4379     1.038694e+00
 6019.2129     1.099954e+00
 6020.9878     1.093603e+00
 6022.7627     1.019596e+00
 6024.5376     1.118641e+00
 6026.3125     1.073429e+00
 6028.0874     1.013321e+00
 6029.8624     1.063224e+00
 6031.6373     1.108784e+00
 6033.4122     1.065957e+00
 6035.1871     1.018228e+00
 6036.9620     1.083803e+00
 6038.7369     1.103335e+00
 6040.5119     1.078820e+00
 6042.2868     1.094333e+00
 6044.0617     1.070793e+00
 6045.8366     1.114058e+00
 6047.6115     1.165852e+00
 6049.3865     1.168581e+00
 6051.1614     1.110800e+00
 6052.9363     1.046602e+00
 6054.7112     1.121673e+00
 6056.4861     1.120556e+00
 6058.2610     1.172177e+00
 6060.0360     1.153614e+00
 6061.8109     1.068026e+00
 6063.5858     1.088042e+00
 6065.3607     1.067126e+00
 6067.1356     1.019278e+00
 6068.9106     1.133635e+00
 6070.6855     1.093750e+00
 6072.4604     1.059218e+00
 6074.2353     1.157719e+00
 6076.0102     1.144832e+00
 6077.7851     1.146619e+00
 6079.5601     1.162038e+00
 6081.3350     1.159753e+00
 6083.1099     1.105916e+00
 6084.8848     1.109127e+00
 6086.6597     1.085684e+00
 6088.4346     1.101338e+00
 6090.2096     1.136900e+00
 6091.9845     1.087952e+00
 6093.7594     1.116156e+00
 6095.5343     1.028104e+00
 6097.3092     1.006477e+00
 6099.0842     1.056075e+00
 6100.8591     1.115444e+00
 6102.6340     1.120296e+00
 6104.4089     1.119394e+00
 6106.1838     1.112151e+00
 6107.9587     1.101200e+00
 6109.7337     1.170589e+00
 6111.5086     1.061645e+00
 6113.2835     1.049919e+00
 6115.0584     1.137928e+00
 6116.8333     1.074682e+00
 6118.6082     1.057226e+00
 6120.3832     9.871273e-01
 6122.1581     1.008125e+00
 6123.9330     1.071088e+00
 6125.7079     1.122032e+00
 6127.4828     1.035876e+00
 6129.2578     1.098515e+00
 6131.0327     1.155704e+00
 6132.8076     1.044024e+00
 6134.5825     1.097943e+00
 6136.3574     1.025084e+00
 6138.1323     1.009288e+00
 6139.9073     1.061375e+00
 6141.6822     1.133393e+00
 6143.4571     1.068798e+00
 6145.2320     1.099655e+00
 6147.0069     1.119822e+00
 6148.7818     1.042767e+00
 6150.5568     1.037240e+00
 6152.3317     1.091079e+00
 6154.1066     1.099211e+00
 6155.8815     1.020224e+00
 6157.6564     1.075810e+00
 6159.4314     1.115789e+00
 6161.2063     1.080620e+00
 6162.9812     1.081779e+00
 6164.7561     1.065434e+00
 6166.5310     1.004970e+00
 6168.3059     1.021599e+00
 6170.0809     1.035386e+00
 6171.8558     1.041425e+00
 6173.6307     1.039862e+00
 6175.4056     1.068225e+00
 6177.1805     1.070728e+00
 6178.9554     1.003740e+00
 6180.7304     9.887683e-01
 6182.5053     9.834707e-01
 6184.2802     9.082229e-01
 6186.0551     9.309594e-01
 6187.8300     9.746205e-01
 6189.6050     1.093828e+00
 6191.3799     1.105945e+00
 6193.1548     1.058066e+00
 6194.9297     1.047585e+00
 6196.7046     1.059200e+00
 6198.4795     1.068871e+00
 6200.2545     1.039931e+00
 6202.0294     1.023990e+00
 6203.8043     1.103301e+00
 6205.5792     1.074350e+00
 6207.3541     1.062243e+00
 6209.1291     9.889466e-01
 6210.9040     1.044947e+00
 6212.6789     1.108392e+00
 6214.4538     1.096187e+00
 6216.2287     1.054415e+00
 6218.0036     1.066768e+00
 6219.7786     1.035853e+00
 6221.5535     1.049779e+00
 6223.3284     1.030076e+00
 6225.1033     1.009145e+00
 6226.8782     1.057020e+00
 6228.6531     1.044664e+00
 6230.4281     1.002630e+00
 6232.2030     1.040163e+00
 6233.9779     1.078013e+00
 6235.7528     1.026261e+00
 6237.5277     1.044967e+00
 6239.3027     1.091682e+00
 6241.0776     1.050292e+00
 6242.8525     1.054915e+00
 6244.6274     1.059939e+00
 6246.4023     1.089666e+00
 6248.1772     1.088406e+00
 6249.9522     1.069039e+00
 6251.7271     1.040705e+00
 6253.5020     1.092141e+00
 6255.2769     1.034189e+00
 6257.0518     9.246645e-01
 6258.8267     9.895433e-01
 6260.6017     1.076345e+00
 6262.3766     1.035038e+00
 6264.1515     1.005797e+00
 6265.9264     1.036234e+00
 6267.7013     1.084014e+00
 6269.4763     1.082956e+00
 6271.2512     1.032525e+00
 6273.0261     1.071805e+00
 6274.8010     1.061135e+00
 6276.5759     9.827502e-01
 6278.3508     9.803510e-01
 6280.1258     9.759794e-01
 6281.9007     1.022366e+00
 6283.6756     9.714358e-01
 6285.4505     9.775878e-01
 6287.2254     9.499542e-01
 6289.0003     9.110413e-01
 6290.7753     9.831523e-01
 6292.5502     1.018475e+00
 6294.3251     9.786099e-01
 6296.1000     9.233969e-01
 6297.8749     1.049069e+00
 6299.6499     1.080937e+00
 6301.4248     1.277878e+00
 6303.1997     1.401450e+00
 6304.9746     1.354085e+00
 6306.7495     1.172390e+00
 6308.5244     1.164588e+00
 6310.2994     1.194983e+00
 6312.0743     9.967640e-01
 6313.8492     1.046519e+00
 6315.6241     1.026551e+00
 6317.3990     1.074371e+00
 6319.1739     1.047905e+00
 6320.9489     9.928759e-01
 6322.7238     1.003227e+00
 6324.4987     1.074083e+00
 6326.2736     1.034928e+00
 6328.0485     1.056985e+00
 6329.8235     1.012846e+00
 6331.5984     1.046333e+00
 6333.3733     1.084206e+00
 6335.1482     1.080161e+00
 6336.9231     1.070627e+00
 6338.6980     1.035950e+00
 6340.4730     1.063101e+00
 6342.2479     1.050495e+00
 6344.0228     1.072136e+00
 6345.7977     1.124234e+00
 6347.5726     1.100400e+00
 6349.3476     1.026669e+00
 6351.1225     1.065775e+00
 6352.8974     1.140061e+00
 6354.6723     1.092227e+00
 6356.4472     1.128335e+00
 6358.2221     1.001552e+00
 6359.9971     9.470795e-01
 6361.7720     1.148673e+00
 6363.5469     1.072490e+00
 6365.3218     1.087924e+00
 6367.0967     1.260275e+00
 6368.8716     1.131108e+00
 6370.6466     1.122596e+00
 6372.4215     1.161016e+00
 6374.1964     1.096416e+00
 6375.9713     1.069170e+00
 6377.7462     1.054303e+00
 6379.5212     1.071574e+00
 6381.2961     1.133286e+00
 6383.0710     1.121626e+00
 6384.8459     1.085774e+00
 6386.6208     1.079699e+00
 6388.3957     1.119348e+00
 6390.1707     1.082599e+00
 6391.9456     1.104517e+00
 6393.7205     1.155898e+00
 6395.4954     1.157371e+00
 6397.2703     1.069423e+00
 6399.0452     1.048686e+00
 6400.8202     1.111860e+00
 6402.5951     1.069086e+00
 6404.3700     1.082455e+00
 6406.1449     1.017636e+00
 6407.9198     1.047524e+00
 6409.6948     1.154993e+00
 6411.4697     1.088826e+00
 6413.2446     1.062950e+00
 6415.0195     1.082822e+00
 6416.7944     1.119655e+00
 6418.5693     1.092498e+00
 6420.3443     1.108125e+00
 6422.1192     1.065232e+00
 6423.8941     1.129620e+00
 6425.6690     1.100125e+00
 6427.4439     1.097641e+00
 6429.2188     1.120564e+00
 6430.9938     1.122034e+00
 6432.7687     1.049175e+00
 6434.5436     1.047932e+00
 6436.3185     1.068503e+00
 6438.0934     1.134148e+00
 6439.8684     1.117528e+00
 6441.6433     1.110261e+00
 6443.4182     1.079711e+00
 6445.1931     1.022791e+00
 6446.9680     1.019870e+00
 6448.7429     1.023610e+00
 6450.5179     1.107790e+00
 6452.2928     1.133478e+00
 6454.0677     1.089764e+00
 6455.8426     1.007270e+00
 6457.6175     9.762809e-01
 6459.3924     1.004027e+00
 6461.1674     1.039035e+00
 6462.9423     1.062262e+00
 6464.7172     1.088895e+00
 6466.4921     1.078539e+00
 6468.2670     1.050132e+00
 6470.0420     1.070478e+00
 6471.8169     1.099061e+00
 6473.5918     1.103087e+00
 6475.3667     1.089038e+00
 6477.1416     1.075798e+00
 6478.9165     1.064964e+00
 6480.6915     1.053273e+00
 6482.4664     1.086345e+00
 6484.2413     1.092130e+00
 6486.0162     1.024618e+00
 6487.7911     1.016976e+00
 6489.5661     1.040344e+00
 6491.3410     1.043115e+00
 6493.1159     1.019295e+00
 6494.8908     1.066139e+00
 6496.6657     9.993238e-01
 6498.4406     9.594014e-01
 6500.2156     9.856744e-01
 6501.9905     9.700727e-01
 6503.7654     1.017311e+00
 6505.5403     1.058887e+00
 6507.3152     1.049743e+00
 6509.0901     1.078670e+00
 6510.8651     1.070661e+00
 6512.6400     1.047719e+00
 6514.4149     1.087801e+00
 6516.1898     1.048815e+00
 6517.9647     1.043491e+00
 6519.7397     1.042520e+00
 6521.5146     1.049576e+00
 6523.2895     1.045982e+00
 6525.0644     1.059104e+00
 6526.8393     1.023719e+00
 6528.6142     1.070912e+00
 6530.3892     1.103966e+00
 6532.1641     1.084105e+00
 6533.9390     1.059145e+00
 6535.7139     1.054041e+00
 6537.4888     1.111207e+00
 6539.2637     1.073680e+00
 6541.0387     1.075773e+00
 6542.8136     1.135011e+00
 6544.5885     1.211225e+00
 6546.3634     1.467433e+00
 6548.1383     1.840824e+00
 6549.9133     2.245386e+00
 6551.6882     2.465343e+00
 6553.4631     2.286997e+00
 6555.2380     1.862675e+00
 6557.0129     1.601953e+00
 6558.7878     1.655327e+00
 6560.5628     2.674369e+00
 6562.3377     4.908418e+00
 6564.1126     7.373728e+00
 6565.8875     8.848330e+00
 6567.6624     8.699962e+00
 6569.4373     6.817884e+00
 6571.2123     4.348166e+00
 6572.9872     2.449249e+00
 6574.7621     1.432107e+00
 6576.5370     1.147373e+00
 6578.3119     1.128647e+00
 6580.0869     1.413940e+00
 6581.8618     2.241538e+00
 6583.6367     3.464220e+00
 6585.4116     4.641924e+00
 6587.1865     5.162055e+00
 6588.9614     4.798999e+00
 6590.7364     3.647004e+00
 6592.5113     2.493891e+00
 6594.2862     1.672374e+00
 6596.0611     1.201979e+00
 6597.8360     1.053304e+00
 6599.6109     1.075200e+00
 6601.3859     1.054428e+00
 6603.1608     1.022375e+00
 6604.9357     1.038430e+00
 6606.7106     1.063025e+00
 6608.4855     1.075396e+00
 6610.2605     1.053907e+00
 6612.0354     1.055733e+00
 6613.8103     1.083517e+00
 6615.5852     1.060348e+00
 6617.3601     1.032257e+00
 6619.1350     1.017308e+00
 6620.9100     1.070652e+00
 6622.6849     1.063126e+00
 6624.4598     1.080835e+00
 6626.2347     1.107873e+00
 6628.0096     1.035562e+00
 6629.7846     1.070233e+00
 6631.5595     1.148266e+00
 6633.3344     1.071120e+00
 6635.1093     1.019636e+00
 6636.8842     1.084292e+00
 6638.6591     1.056630e+00
 6640.4341     1.078046e+00
 6642.2090     1.080352e+00
 6643.9839     1.046976e+00
 6645.7588     1.082130e+00
 6647.5337     1.102466e+00
 6649.3086     1.076046e+00
 6651.0836     1.052432e+00
 6652.8585     1.040528e+00
 6654.6334     1.024793e+00
 6656.4083     1.024441e+00
 6658.1832     1.056561e+00
 6659.9582     1.041261e+00
 6661.7331     1.049185e+00
 6663.5080     1.027492e+00
 6665.2829     1.005184e+00
 6667.0578     1.022974e+00
 6668.8327     1.034788e+00
 6670.6077     1.058943e+00
 6672.3826     1.005794e+00
 6674.1575     1.053289e+00
 6675.9324     1.085800e+00
 6677.7073     1.138427e+00
 6679.4822     1.157700e+00
 6681.2572     1.064691e+00
 6683.0321     1.067943e+00
 6684.8070     1.120154e+00
 6686.5819     1.073964e+00
 6688.3568     1.055294e+00
 6690.1318     1.035476e+00
 6691.9067     1.030818e+00
 6693.6816     1.034889e+00
 6695.4565     1.100055e+00
 6697.2314     1.053526e+00
 6699.0063     1.010182e+00
 6700.7813     1.025013e+00
 6702.5562     1.033150e+00
 6704.3311     1.037636e+00
 6706.1060     1.032743e+00
 6707.8809     1.006045e+00
 6709.6558     1.031840e+00
 6711.4308     1.056564e+00
 6713.2057     1.134922e+00
 6714.9806     1.335337e+00
 6716.7555     1.656916e+00
 6718.5304     2.036289e+00
 6720.3054     2.229093e+00
 6722.0803     2.032550e+00
 6723.8552     1.730423e+00
 6725.6301     1.419561e+00
 6727.4050     1.311947e+00
 6729.1799     1.294240e+00
 6730.9549     1.595365e+00
 6732.7298     1.956877e+00
 6734.5047     2.067769e+00
 6736.2796     1.991738e+00
 6738.0545     1.777097e+00
 6739.8294     1.390121e+00
 6741.6044     1.151870e+00
 6743.3793     1.065403e+00
 6745.1542     1.049174e+00
 6746.9291     1.036450e+00
 6748.7040     1.048445e+00
 6750.4790     1.046085e+00
 6752.2539     1.038903e+00
 6754.0288     1.055286e+00
 6755.8037     1.093971e+00
 6757.5786     1.018483e+00
 6759.3535     9.642215e-01
 6761.1285     1.003474e+00
 6762.9034     1.063184e+00
 6764.6783     1.051992e+00
 6766.4532     1.008942e+00
 6768.2281     1.013993e+00
 6770.0031     9.831144e-01
 6771.7780     9.895754e-01
 6773.5529     1.000627e+00
 6775.3278     9.902068e-01
 6777.1027     9.268562e-01
 6778.8776     9.502533e-01
 6780.6526     1.020577e+00
 6782.4275     1.068184e+00
 6784.2024     1.036755e+00
 6785.9773     1.008752e+00
 6787.7522     1.007416e+00
 6789.5271     1.043488e+00
 6791.3021     1.014935e+00
 6793.0770     1.052631e+00
 6794.8519     1.032894e+00
 6796.6268     1.027054e+00
 6798.4017     9.430349e-01
 6800.1767     1.007330e+00
 6801.9516     1.041842e+00
 6803.7265     9.980865e-01
 6805.5014     1.003969e+00
 6807.2763     9.496247e-01
 6809.0512     9.847074e-01
 6810.8262     1.004006e+00
 6812.6011     9.940782e-01
 6814.3760     1.049198e+00
 6816.1509     9.762406e-01
 6817.9258     1.021915e+00
 6819.7007     1.068022e+00
 6821.4757     9.622216e-01
 6823.2506     9.739171e-01
 6825.0255     9.892858e-01
 6826.8004     1.022771e+00
 6828.5753     1.009985e+00
 6830.3503     1.030705e+00
 6832.1252     1.029489e+00
 6833.9001     1.025190e+00
 6835.6750     1.043899e+00
 6837.4499     1.055979e+00
 6839.2248     1.021007e+00
 6840.9998     9.838046e-01
 6842.7747     9.711890e-01
 6844.5496     9.923881e-01
 6846.3245     1.027674e+00
 6848.0994     1.036457e+00
 6849.8743     1.047855e+00
 6851.6493     9.785720e-01
 6853.4242     1.046597e+00
 6855.1991     1.007751e+00
 6856.9740     9.886524e-01
 6858.7489     9.780285e-01
 6860.5239     9.810191e-01
 6862.2988     9.853889e-01
 6864.0737     8.979158e-01
 6865.8486     8.305051e-01
 6867.6235     6.677143e-01
 6869.3984     6.624367e-01
 6871.1734     6.964507e-01
 6872.9483     7.529570e-01
 6874.7232     7.607501e-01
 6876.4981     7.531694e-01
 6878.2730     7.939019e-01
 6880.0479     7.843647e-01
 6881.8229     8.992328e-01
 6883.5978     8.910087e-01
 6885.3727     8.726410e-01
 6887.1476     8.340659e-01
 6888.9225     8.499760e-01
 6890.6975     8.519226e-01
 6892.4724     8.302434e-01
 6894.2473     8.431410e-01
 6896.0222     8.004996e-01
 6897.7971     8.398786e-01
 6899.5720     8.834934e-01
 6901.3470     8.075994e-01
 6903.1219     8.788797e-01
 6904.8968     8.830125e-01
 6906.6717     8.678401e-01
 6908.4466     8.373857e-01
 6910.2216     8.462551e-01
 6911.9965     8.592589e-01
 6913.7714     9.293416e-01
 6915.5463     8.609979e-01
 6917.3212     8.983724e-01
 6919.0961     9.243522e-01
 6920.8711     9.938301e-01
 6922.6460     9.447077e-01
 6924.4209     8.386413e-01
 6926.1958     8.364211e-01
 6927.9707     8.558017e-01
 6929.7456     8.470851e-01
 6931.5206     8.203611e-01
 6933.2955     8.684880e-01
 6935.0704     8.858306e-01
 6936.8453     8.455592e-01
 6938.6202     8.728496e-01
 6940.3952     8.283774e-01
 6942.1701     8.231306e-01
 6943.9450     9.261758e-01
 6945.7199     9.968868e-01
 6947.4948     8.838146e-01
 6949.2697     9.051917e-01
 6951.0447     8.182678e-01
 6952.8196     8.436096e-01
 6954.5945     8.583909e-01
 6956.3694     8.024313e-01
 6958.1443     8.989818e-01
 6959.9192     8.791527e-01
 6961.6942     8.592356e-01
 6963.4691     8.573220e-01
 6965.2440     8.904610e-01
 6967.0189     8.755568e-01
 6968.7938     8.300916e-01
 6970.5688     9.036357e-01
 6972.3437     8.395947e-01
 6974.1186     8.922471e-01
 6975.8935     8.775632e-01
 6977.6684     8.477549e-01
 6979.4433     8.063477e-01
 6981.2183     7.710098e-01
 6982.9932     7.573753e-01
 6984.7681     8.007805e-01
 6986.5430     8.243663e-01
 6988.3179     8.100108e-01
 6990.0928     7.707780e-01
 6991.8678     7.560182e-01
 6993.6427     8.105898e-01
 6995.4176     7.929460e-01
 6997.1925     7.925755e-01
 6998.9674     8.160239e-01
 7000.7424     7.661540e-01
 7002.5173     7.772175e-01
 7004.2922     7.857793e-01
 7006.0671     8.221400e-01
 7007.8420     8.232563e-01
 7009.6169     8.270519e-01
 7011.3919     8.630844e-01
 7013.1668     8.075393e-01
 7014.9417     7.972201e-01
 7016.7166     7.193626e-01
 7018.4915     7.399369e-01
 7020.2664     6.958756e-01
 7022.0414     6.731730e-01
 7023.8163     7.298954e-01
 7025.5912     7.224099e-01
 7027.3661     6.903422e-01
 7029.1410     7.321785e-01
 7030.9160     7.605835e-01
 7032.6909     7.717916e-01
 7034.4658     7.219868e-01
 7036.2407     7.193176e-01
 7038.0156     7.213890e-01
 7039.7905     7.027351e-01
 7041.5655     6.856444e-01
 7043.3404     7.080756e-01
 7045.1153     7.134493e-01
 7046.8902     2.655846e-01

